wavelength[μm],reflectance
1.00135,NaN
1.00790,NaN
1.01445,0.20799
1.02100,0.20435
1.02755,0.1989
1.03410,0.20033
1.04065,0.19921
1.04720,0.19726
1.05375,0.19753
1.06030,0.19834
1.06685,0.19768
1.07341,0.19763
1.07996,0.19672
1.08651,0.19769
1.09307,0.19877
1.09962,0.19987
1.10617,0.20005
1.11273,0.20199
1.11928,0.199
1.12584,0.19958
1.13239,0.19995
1.13895,0.1999
1.14551,0.20041
1.15206,0.20161
1.15862,0.20159
1.16518,0.20213
1.17173,0.20203
1.17829,0.20189
1.18485,0.20163
1.19141,0.20161
1.19797,0.19945
1.20453,0.19692
1.21109,0.19902
1.21765,0.19742
1.22421,0.19839
1.23077,0.19973
1.23733,0.20185
1.24389,0.20185
1.25045,0.20281
1.25701,0.20291
1.26357,0.20343
1.27014,0.20544
1.27670,0.20489
1.28326,0.20477
1.28983,0.20451
1.29639,0.20527
1.30295,0.20561
1.30952,0.20412
1.31608,0.20309
1.32265,0.20587
1.32921,0.20629
1.33578,0.20552
1.34234,0.20496
1.34891,0.20475
1.35548,0.20462
1.36205,0.20409
1.36861,0.20305
1.37518,0.20321
1.38175,0.20333
1.38832,0.20409
1.39489,0.20493
1.40145,0.20518
1.40802,0.2057
1.41459,0.20677
1.42116,0.20678
1.42773,0.19926
1.43431,0.19143
1.44088,0.19273
1.44745,0.20124
1.45402,0.20729
1.46059,0.20948
1.46716,0.20868
1.47374,0.20835
1.48031,0.20819
1.48688,0.20824
1.49346,0.20902
1.50003,0.20865
1.50661,0.21133
1.51318,0.21196
1.51976,0.21043
1.52633,0.20807
1.53291,0.20726
1.53948,0.20968
1.54606,0.21251
1.55264,0.21311
1.55921,0.21099
1.56579,0.20397
1.57237,0.19911
1.57895,0.20496
1.58552,0.20929
1.59210,0.20816
1.59868,0.20303
1.60526,0.20085
1.61184,0.20329
1.61842,0.20753
1.62500,0.20945
1.63158,0.21009
1.63816,0.20996
1.64474,0.21126
1.65133,0.21319
1.65791,0.21285
1.66449,0.21314
1.67107,0.21192
1.67766,0.21353
1.68424,0.21315
1.69082,0.21331
1.69741,0.21395
1.70399,0.21543
1.71058,0.21545
1.71716,0.21634
1.72375,0.21645
1.73033,0.21658
1.73692,0.21708
1.74351,0.21722
1.75009,0.2172
1.75668,0.21712
1.76327,0.21723
1.76985,0.21737
1.77644,0.21702
1.78303,0.21805
1.78962,0.21793
1.79621,0.21733
1.80280,0.21701
1.80939,0.21665
1.81598,0.21607
1.82257,0.21645
1.82916,0.21675
1.83575,0.21601
1.84234,0.21591
1.84893,0.21655
1.85552,0.21632
1.86212,0.21601
1.86871,0.21205
1.87530,0.21023
1.88190,0.21137
1.88849,0.21358
1.89508,0.21526
1.90168,0.21616
1.90827,0.21667
1.91487,0.21664
1.92146,0.21714
1.92806,0.21609
1.93465,0.21057
1.94125,0.19569
1.94785,0.176
1.95444,0.16266
1.96104,0.16741
1.96764,0.18174
1.97424,0.19809
1.98084,0.20519
1.98743,0.19927
1.99403,0.16878
2.00063,0.13264
2.00723,0.12331
2.01383,0.13914
2.02043,0.166
2.02703,0.18435
2.03363,0.19018
2.04024,0.18764
2.04684,0.17874
2.05344,0.17222
2.06004,0.1742
2.06664,0.17881
2.07325,0.18635
2.07985,0.19287
2.08645,0.19842
2.09306,0.20365
2.09966,0.2081
2.10627,0.21135
2.11287,0.21456
2.11948,0.21823
2.12608,0.22107
2.13269,0.22117
2.13930,0.21874
2.14590,0.21809
2.15251,0.21754
2.15912,0.21833
2.16572,0.22019
2.17233,0.22215
2.17894,0.22262
2.18555,0.22325
2.19216,0.22508
2.19877,0.22328
2.20538,0.22309
2.21199,0.22421
2.21860,0.22452
2.22521,0.22407
2.23182,0.22501
2.23843,0.22475
2.24504,0.22537
2.25165,0.22492
2.25827,0.22474
2.26488,0.22482
2.27149,0.22581
2.27810,0.22603
2.28472,0.22572
2.29133,0.22655
2.29795,0.22594
2.30456,0.22572
2.31118,0.225
2.31779,0.22454
2.32441,0.22402
2.33102,0.22386
2.33764,0.22387
2.34426,0.22441
2.35087,0.22478
2.35749,0.22438
2.36411,0.22405
2.37072,0.22437
2.37734,0.22354
2.38396,0.22252
2.39058,0.22285
2.39720,0.22377
2.40382,0.22376
2.41044,0.22436
2.41706,0.22433
2.42368,0.22405
2.43030,0.22427
2.43692,0.2241
2.44354,0.22437
2.45017,0.22449
2.45679,0.22395
2.46341,0.22396
2.47003,0.22301
2.47666,0.22181
2.48328,0.2206
2.48990,0.22097
2.49653,0.22111
2.50312,0.22084
2.50972,0.22005
2.51632,0.21953
2.52292,0.21867
2.52951,0.21773
2.53611,0.21663
2.54271,0.2156
2.54931,0.21486
2.55591,0.2131
2.56251,0.21092
2.56911,0.20928
2.57571,0.20817
2.58231,0.20606
2.58891,0.20357
2.59551,0.20194
2.60212,0.20155
2.60872,0.20132
2.61532,0.20259
2.62192,0.203
2.62853,0.20364
2.63513,0.20381
2.64174,0.20112
2.64834,0.19268
2.65495,0.16659
2.66155,0.1158
2.66816,0.05546
2.67476,0.02301
2.68137,0.01541
2.68798,0.01664
2.69458,0.05516
2.70119,0.24394
2.76068,NaN
2.76729,NaN
2.77390,NaN
2.78052,0.00238
2.78713,0.00422
2.79374,0.00666
2.80035,0.0101
2.80697,0.01376
2.81358,0.01705
2.82020,0.02046
2.82681,0.02349
2.83343,0.02585
2.84004,0.02739
2.84666,0.0289
2.85328,0.03083
2.85989,0.03302
2.86651,0.03506
2.87313,0.03673
2.87975,0.03779
2.88636,0.03875
2.89298,0.03913
2.89960,0.03898
2.90622,0.03859
2.91284,0.03831
2.91946,0.03795
2.92608,0.03773
2.93270,0.0379
2.93932,0.03844
2.94595,0.03898
2.95257,0.03966
2.95919,0.04038
2.96581,0.04148
2.97244,0.04243
2.97906,0.04325
2.98568,0.0442
2.99231,0.0454
2.99893,0.04627
3.00556,0.0468
3.01218,0.04719
3.01881,0.04787
3.02544,0.04877
3.03206,0.04961
3.03869,0.05007
3.04532,0.05008
3.05195,0.04997
3.05857,0.04974
3.06520,0.04899
3.07183,0.04954
3.07846,0.05084
3.08509,0.05232
3.09172,0.05323
3.09835,0.05424
3.10498,0.05508
3.11161,0.05585
3.11825,0.05642
3.12488,0.05705
3.13151,0.05705
3.13814,0.05773
3.14478,0.05927
3.15141,0.06165
3.15804,0.06403
3.16468,0.06571
3.17131,0.06701
3.17795,0.06845
3.18458,0.06977
3.19122,0.07137
3.19785,0.0732
3.20449,0.07497
3.21113,0.0767
3.21776,0.07842
3.22440,0.08022
3.23104,0.08212
3.23768,0.084
3.24432,0.08618
3.25096,0.08852
3.25760,0.09007
3.26424,0.09154
3.27088,0.09321
3.27752,0.09579
3.28416,0.09891
3.29080,0.10165
3.29744,0.10419
3.30408,0.10659
3.31073,0.10894
3.31737,0.11116
3.32401,0.11324
3.33066,0.11527
3.33730,0.11734
3.34395,0.11956
3.35059,0.12151
3.35724,0.12329
3.36388,0.12522
3.37053,0.12728
3.37717,0.1293
3.38382,0.13153
3.39047,0.13366
3.39712,0.136
3.40376,0.13851
3.41041,0.14042
3.41706,0.14235
3.42371,0.14349
3.43036,0.14574
3.43701,0.1479
3.44366,0.1492
3.45031,0.1503
3.45696,0.15161
3.46361,0.15349
3.47026,0.15604
3.47692,0.15877
3.48357,0.1607
3.49022,0.16208
3.49687,0.16328
3.50353,0.16534
3.51018,0.16842
3.51684,0.17187
3.52349,0.17524
3.53015,0.17834
3.53680,0.18059
3.54346,0.18315
3.55011,0.18689
3.55677,0.1904
3.56343,0.19278
3.57008,0.19467
3.57674,0.19544
3.58340,0.19757
3.59006,0.19862
3.59672,0.19981
3.60338,0.20228
3.61004,0.20377
3.61670,0.204
3.62336,0.20477
3.63002,0.20806
3.63668,0.21115
3.64334,0.21262
3.65000,0.21354
3.65667,0.21533
3.66333,0.21659
3.66999,0.21526
3.67665,0.21755
3.68332,0.21984
3.68998,0.22252
3.69665,0.22353
3.70331,0.22363
3.70998,0.22431
3.71664,0.22503
3.72331,0.22435
3.72998,0.22353
3.73664,0.22394
3.74331,0.22588
3.74998,0.22626
3.75665,0.22492
3.76331,0.22376
3.76998,0.22348
3.77665,0.22323
3.78332,0.22153
3.78999,0.21969
3.79666,0.21971
3.80333,0.22082
3.81000,0.22099
3.81667,0.21927
3.82335,0.21844
3.83002,0.21943
3.83669,0.2202
3.84336,0.21885
3.85004,0.21605
3.85671,0.21465
3.86339,0.21552
3.87006,0.21816
3.87673,0.21933
3.88341,0.21961
3.89008,0.22034
3.89676,0.22337
3.90344,0.22701
3.91011,0.22814
3.91679,0.22275
3.92347,NaN
3.93015,NaN
3.93682,NaN
